MIN=0	-300	-0.3
MAX=40	300	0.3
SCALE=10	100	0.1
DEC=1	1	4
DEF="Time" t / s	"Magn. flux density" B_A1 / mT	"Voltage" U_B1 / V
0	-6.42	-0.0018
0.1	-6.42	-0.00195
0.19	-6.39	-0.00165
0.3	-6.465	-0.00195
0.4	-6.405	-0.0018
0.51	-6.45	-0.0015
0.6	-6.45	-0.0021
0.69	-6.42	-0.0015
0.8	-6.465	-0.0024
0.9	-6.405	-0.00195
1.01	-6.465	-0.00225
1.1	-6.405	-0.00195
1.19	-6.465	-0.0012
1.3	-6.45	-0.0021
1.4	-6.375	-0.0015
1.49	-6.435	-0.0018
1.6	-6.36	-0.00165
1.69	-6.45	-0.0009
1.8	-6.465	-0.00225
1.9	-6.405	-0.00135
1.99	-6.465	-0.00135
2.1	-6.45	-0.0024
2.19	-6.45	-0.0015
2.31	-6.42	-0.00195
2.39	-6.39	-0.0015
2.5	-6.42	-0.00255
2.6	-6.42	-0.0015
2.69	-6.465	-0.0015
2.8	-6.405	-0.0018
2.89	-6.465	-0.0018
3	-6.51	-0.003
3.1	-6.45	-0.00165
3.2	-5.46	-0.00195
3.3	-4.35	-0.00195
3.39	-4.35	-0.0018
3.5	-3.885	-0.00285
3.6		-0.00165
3.7	-0.14	-0.00345
3.8	1.525	-0.00435
3.89	1.94	-0.0036
4	2.83	-0.00405
4.09	3.36	-0.0042
4.2	5.41	-0.00525
4.3	6.035	-0.00465
4.39	6.85	-0.00495
4.5	7.645	-0.00645
4.59	9.44	-0.00585
4.7		-0.00675
4.8	11.085	-0.00705
4.89	12.555	-0.0066
5	13.545	-0.0078
5.09	13.575	-0.00735
5.2	13.59	-0.0072
5.3	13.65	-0.0075
5.39	13.665	-0.00645
5.5	13.77	-0.0084
5.59	14.61	-0.00675
5.7	16.545	-0.00885
5.8	16.995	-0.00825
5.89	17.625	-0.0078
6	19.095	-0.00885
6.09	21.15	-0.0087
6.2	23.1	-0.01005
6.3	23.835	-0.0099
6.39	24	-0.0099
6.5	25.935	-0.0111
6.59	26.58	-0.01005
6.7	27.72	-0.01125
6.8	27.78	-0.0114
6.89	27.795	-0.01065
7	29.58	-0.01215
7.09		-0.0123
7.2	33.75	-0.0123
7.3	34.85	-0.01245
7.41	36.5	-0.01305
7.5	37.3	-0.0144
7.59	37.7	-0.01335
7.7	37.7	-0.01365
7.8	39.65	-0.01395
7.91	40.2	-0.01425
8	41.95	-0.0156
8.09	43.65	-0.01485
8.2	44.65	-0.0156
8.3	44.75	-0.01635
8.41	44.65	-0.01485
8.5	44.75	-0.01605
8.59	44.6	-0.0156
8.7	45	-0.0162
8.8	46.3	-0.0162
8.89	47.9	-0.01635
9	49.15	-0.01695
9.09	50.6	-0.01695
9.2	52.9	-0.0177
9.3	54.35	-0.01845
9.39	54.4	-0.01725
9.5	56.55	-0.0195
9.59	58	-0.01905
9.7	59.75	-0.0198
9.8	60.65	-0.0204
9.89	60.75	-0.01965
10	60.7	-0.02055
10.09	60.75	-0.01935
10.2	60.7	-0.01935
10.3	60.65	-0.0201
10.41	62.6	-0.01965
10.5	62.75	-0.0207
10.59	62.85	-0.01995
10.7	64.45	-0.02115
10.8	64.55	-0.0207
10.89	65.45	-0.0207
10.99	65.5	-0.02145
11.1	65.6	-0.02175
11.2	67.6	-0.02145
11.3	67.5	-0.0213
11.4	67.65	-0.02265
11.49	67.6	-0.02205
11.6	67.6	-0.0222
11.7	70.5	-0.02295
11.8	71.2	-0.02295
11.9	73.15	-0.0225
11.99	73.2	-0.02235
12.1	73.15	-0.024
12.2	73.2	-0.02295
12.3	73.15	-0.0234
12.4	73.25	-0.0237
12.49	75.4	-0.0234
12.6	77.1	-0.0243
12.7	77.35	-0.02415
12.8	78.2	-0.0246
12.9	79	-0.0252
12.99	79.15	-0.0246
13.1	82.95	-0.0261
13.2	84.45	-0.02625
13.3	86.5	-0.027
13.39	89.05	-0.02625
13.5	90.6	-0.02715
13.6	90.7	-0.0282
13.7	94.75	-0.0288
13.8	95	-0.0294
13.89	94.95	-0.0285
14	96.6	-0.02985
14.1	97.05	-0.02955
14.2	96.9	-0.02925
14.3	97.05	-0.02925
14.41	97	-0.0297
14.5	99.9	-0.0315
14.59		-0.03075
14.7	105	-0.03015
14.8	105.15	-0.0321
14.9	105	-0.03075
15	105	-0.0315
15.09	105.15	-0.03105
15.2	105.15	-0.03075
15.3	108.15	-0.0324
15.4	111.15	-0.03255
15.5	111.45	-0.03375
15.59	111.15	-0.0336
15.7	114.3	-0.0333
15.8	116.4	-0.0342
15.9	116.4	-0.0348
16	116.55	-0.03435
16.09	116.55	-0.0339
16.2	119.4	-0.03495
16.3	122.25	-0.0357
16.4	122.25	-0.0351
16.5	124.95	-0.0366
16.6	126.9	-0.03675
16.7	127.05	-0.0363
16.81	127.2	-0.03645
16.9	127.2	-0.0369
16.99	127.05	-0.0363
17.1	127.05	-0.0363
17.2	127.05	-0.0372
17.29	127.05	-0.03675
17.4	127.05	-0.03735
17.49	127.05	-0.03735
17.6	126.9	-0.0375
17.7	127.05	-0.0372
17.81	127.05	-0.03705
17.9	127.2	-0.03765
17.99	127.05	-0.0366
18.1	127.05	-0.03675
18.2	127.05	-0.03735
18.31	130.05	-0.03675
18.4	131.55	-0.03855
18.49	131.4	-0.0381
18.6	134.25	-0.0384
18.7	135.6	-0.0387
18.81	138	-0.0384
18.9	138	-0.0399
18.99	141	-0.04035
19.1	142.5	-0.0411
19.2	144.15	-0.0417
19.31	145.2	-0.04095
19.4	148.65	-0.0426
19.49	151.8	-0.04305
19.6	154.5	-0.0444
19.7	154.8	-0.04335
19.8	154.5	-0.04425
19.9	154.65	-0.0441
19.99	154.8	-0.0435
20.1	157.95	-0.0447
20.2	160.95	-0.04515
20.3	162.3	-0.0453
20.4	162.6	-0.04605
20.49	162.9	-0.0459
20.6	164.4	-0.0465
20.7	166.2	-0.0468
20.8	166.5	-0.04635
20.9	167.7	-0.048
20.99	169.5	-0.0471
21.1	171.15	-0.04845
21.2	172.65	-0.048
21.3	172.95	-0.048
21.4	172.95	-0.0483
21.49	173.1	-0.04875
21.6	172.95	-0.0474
21.7	173.55	-0.0483
21.8	175.05	-0.0477
21.9	174.9	-0.04905
21.99	174.9	-0.04875
22.1	175.05	-0.04815
22.2	174.9	-0.0486
22.3	174.9	-0.04845
22.4	174.9	-0.0486
22.49	175.05	-0.0477
22.6	174.9	-0.0483
22.69	174.9	-0.04905
22.8	174.9	-0.048
22.9	175.05	-0.0498
22.99	174.9	-0.0492
23.1	175.05	-0.04905
23.19	174.9	-0.04875
23.3	174.9	-0.04815
23.4	174.9	-0.0486
23.49	174.9	-0.04785
23.6	175.05	-0.0489
23.69	174.9	-0.0483
23.8	175.05	-0.04875
23.9	175.05	-0.0486
24.01	174.9	-0.04815
24.1	174.9	-0.04785
24.19	174.9	-0.04905
24.3	174.9	-0.04875
24.4	174.9	-0.0498
24.49	174.9	-0.04845
24.6	175.05	-0.0492
24.69	175.05	-0.0483
24.8	174.9	-0.04815
24.9	174.9	-0.0483
24.99	174.9	-0.04785
25.1	174.9	-0.0489
25.19	174.9	-0.04875
25.3	175.05	-0.04875
25.4	175.05	-0.04905
25.49	174.9	-0.04875
25.6	174.9	-0.04815
25.69	175.05	-0.0486
25.8	174.9	-0.0483
25.91	174.9	-0.04845
26	174.9	-0.04905
26.09	175.05	-0.04905
26.2	175.05	-0.04815
26.3	175.05	-0.04965
26.39	174.9	-0.04875
26.5	175.05	-0.04905
26.59	175.05	-0.0492
26.7	174.9	-0.0483
26.8	174.9	-0.0489
26.89	174.9	-0.0483
27	175.05	-0.048
27.09	174.9	-0.0489
27.2	175.05	-0.048
27.3	174.9	-0.048
27.4	174.9	-0.0483
27.49	174.9	-0.04845
27.6	174.9	-0.0489
27.7	174.9	-0.0495
27.8	174.9	-0.0483
27.9	174.9	-0.04965
27.99	174.9	-0.0483
28.1	175.05	-0.04785
28.2	174.9	-0.04935
28.3	175.05	-0.04875
28.4	175.05	-0.0492
28.49	174.9	-0.04845
28.6	174.9	-0.0486
28.7	175.05	-0.04935
28.8	175.05	-0.04845
28.9	175.05	-0.0483
28.99	175.05	-0.04875
29.1	174.9	-0.0489
