MIN=0	-300	-0.3
MAX=40	300	0.3
SCALE=10	100	0.1
DEC=1	1	4
DEF="Time" t / s	"Magn. flux density" B_A1 / mT	"Voltage" U_B1 / V
0	-6.54	-0.00045
0.1	-6.48	-0.00015
0.19	-6.54	-0.00015
0.3	-6.54	-0.0006
0.39	-6.51	-0.0003
0.5	-6.525	0.0003
0.6	-6.51	-0.0003
0.69	-6.54	0.0009
0.8	-6.48	-0.00075
0.89	-6.51	0
1	-6.525	0.00015
1.1	-6.54	-0.00015
1.19	-6.57	0.00045
1.3	-6.51	0.0006
1.39	-6.51	-0.0003
1.5	-6.525	0.00015
1.6	-6.495	-0.00045
1.69	-6.555	0.0006
1.8	-6.54	0.00015
1.89	-6.45	-0.00015
2	-6.555	-0.00015
2.1	-6.465	0.0003
2.21	-6.555	0.0003
2.3	-6.525	-0.0003
2.39	-6.54	0.00045
2.5	-6.555	0.00045
2.6	-6.45	-0.00045
2.7	-6.57	0.00075
2.8	-6.525	-0.00045
2.89	-6.465	-0.00015
3	-6.57	0.00015
3.1	-6.495	-0.00045
3.2	-6.555	0
3.3	-6.57	-0.00105
3.39	-6.465	0
3.5	-4.74	0.0003
3.6		-0.00045
3.69	-1.545	0.00105
3.8	1.2	0.0009
3.89	1.76	0.00105
4	1.795	0.00135
4.1	1.975	0.00045
4.2	2.61	0.0018
4.3	2.77	0.0018
4.39	3.2	0.0018
4.5	5.15	0.00165
4.6	6.37	0.00225
4.7	7.745	0.0033
4.8	9.745	0.0024
4.89		0.00375
5	12.525	0.00375
5.1	13.575	0.00435
5.2	13.815	0.00435
5.3	14.145	0.0036
5.39	15.48	0.00345
5.5	16.35	0.00405
5.59	16.815	0.0039
5.7	18.27	0.0054
5.8	18.57	0.0039
5.89	19.29	0.00525
6	19.74	0.00465
6.09	20.475	0.0042
6.2	21.345	0.0051
6.3	21.39	0.0057
6.39	21.435	0.0048
6.5	21.405	0.0057
6.6	22.785	0.0048
6.7	23.925	0.0063
6.8	25.695	0.0069
6.89	27.555	0.00705
7	28.545	0.0054
7.1	29.64	0.00645
7.2		0.00765
7.3	32.85	0.00705
7.39	34	0.0081
7.5	34.9	0.0081
7.6	35.55	0.00765
7.7	38.5	0.00855
7.8	38.5	0.00735
7.91	38.7	0.00795
8	39.55	0.0078
8.1	40.3	0.0087
8.2	40.9	0.0096
8.3	41.2	0.00825
8.39	41.5	0.00945
8.5	42.3	0.009
8.6	42.85	0.00885
8.7	43.3	0.00885
8.8	44.45	0.0093
8.89	44.7	0.00885
9	44.9	0.01005
9.1	45.65	0.0096
9.2	46.4	0.009
9.3	47.45	0.01005
9.41	47.55	0.01155
9.5	47.45	0.0099
9.6	48.85	0.0093
9.7	49	0.0108
9.8	49	0.00975
9.89	49.15	0.0108
10	50.6	0.01065
10.09	50.65	0.0105
10.2	52.65	0.0123
10.3	52.75	0.01215
10.39	52.8	0.0114
10.5	52.85	0.0114
10.59	55.3	0.01095
10.7	55.35	0.0114
10.8	55.25	0.0117
10.89	56.95	0.0132
11	56.95	0.0117
11.09	56.95	0.01185
11.2	56.9	0.01245
11.3	57.9	0.0117
11.39	59.95	0.01185
11.5	61.8	0.0132
11.59	62.3	0.01215
11.7	62.2	0.0132
11.8	62.3	0.0123
11.91	62.35	0.0129
12	62.15	0.0126
12.09	62.2	0.012
12.2	62.3	0.0129
12.3	62.15	0.01275
12.41	62.2	0.01275
12.5	62.25	0.0126
12.59	62.3	0.01245
12.7	62.3	0.01275
12.8	62.2	0.0129
12.91	63.05	0.0129
13	63.8	0.01275
13.09	65	0.01305
13.2	66.35	0.0144
13.3	67.5	0.01335
13.41	68.25	0.01455
13.5	68.2	0.01365
13.6	70.35	0.0147
13.69	71.7	0.01365
13.8	73.6	0.0153
13.9	73.75	0.0153
13.99	75.45	0.0144
14.1	76.95	0.0153
14.19	78.65	0.01515
14.3	80.9	0.01695
14.4	81.8	0.01575
14.51	81.85	0.01605
14.6	82.75	0.01695
14.69	83.85	0.01635
14.8	85.4	0.01695
14.9	87.65	0.0174
14.99	89.05	0.01755
15.1	89.05	0.01845
15.19	90.65	0.0189
15.3	91.35	0.0192
15.4	91.9	0.0186
15.51	93.9	0.01785
15.6	95.55	0.01935
15.69	96.05	0.0186
15.8	97.8	0.01905
15.89	99.25	0.01905
16		0.02055
16.1	102.45	0.02085
16.19	103.5	0.01995
16.3	103.65	0.02055
16.39	103.65	0.0201
16.5	103.65	0.02115
16.6	103.65	0.0207
16.7	103.5	0.02085
16.81	103.65	0.0201
16.9	103.8	0.0207
16.99	103.65	0.02055
17.1	103.65	0.0207
17.2	103.65	0.02175
17.31	103.65	0.02085
17.4	103.65	0.0207
17.49	103.8	0.02115
17.6	103.65	0.0207
17.7	103.65	0.0204
17.81	103.65	0.02055
17.9	103.65	0.01995
17.99	103.65	0.02055
18.1	103.8	0.0207
18.2	103.65	0.0213
18.31	103.8	0.0207
18.4	103.65	0.02085
18.49	105.3	0.02055
18.6	106.8	0.02145
18.7	106.95	0.02085
18.8	106.8	0.0216
18.89	106.8	0.0204
19	109.2	0.0213
19.1	109.35	0.0213
19.22	112.05	0.0231
19.29	112.05	0.021
19.4	114	0.02295
19.5	114.9	0.02325
19.59	116.4	0.02295
19.7	116.7	0.0231
19.79	118.65	0.0237
19.9	119.7	0.0246
20	120.9	0.0246
20.11	123.45	0.0246
20.2	125.1	0.0243
20.3	128.4	0.0252
20.39	130.5	0.0246
20.5	132.6	0.0261
20.6	135.45	0.0264
20.7	138.9	0.0264
20.8	140.1	0.02805
20.89	142.05	0.027
21	144.15	0.02775
21.1	144.45	0.0282
21.2	144.6	0.0282
21.3	144.75	0.02925
21.39	144.6	0.02745
21.5	144.6	0.02865
21.6	144.45	0.02775
21.7	144.6	0.02775
21.8	144.45	0.02775
21.89	144.6	0.02865
22	144.45	0.02805
22.1	144.45	0.02775
22.2	144.6	0.02835
22.3	147.6	0.02865
22.39	147.9	0.02805
22.51	149.7	0.02895
22.59	152.1	0.02955
22.7	152.4	0.02985
22.79	154.2	0.03
22.9	157.05	0.02955
23	159.45	0.03165
23.09	159.9	0.03105
23.2	160.65	0.03135
23.29	162.15	0.0321
23.4	163.35	0.03225
23.5	163.5	0.0318
23.61	164.7	0.0315
23.7	165.6	0.033
23.79	165.9	0.0324
23.9	167.4	0.03195
24	168.6	0.0324
24.11	170.4	0.0318
24.19	170.85	0.03225
24.3	172.05	0.03285
24.39	172.35	0.033
24.5	173.1	0.03285
24.6	174	0.0333
24.69	174.75	0.0333
24.8	175.05	0.0345
24.89	175.05	0.0336
25	175.05	0.0336
25.1	175.05	0.03405
25.21	175.05	0.0333
25.3	175.2	0.0339
25.39	175.05	0.0339
25.5	175.05	0.03315
25.6	175.05	0.03435
25.69	175.05	0.03375
25.8	175.05	0.0342
25.89	175.05	0.0342
26	175.2	0.03375
26.1	175.05	0.03375
26.21	175.05	0.0336
26.3	175.2	0.0339
26.4	175.2	0.03345
26.5	175.05	0.03495
26.59	175.05	0.0336
26.7	175.2	0.0339
26.8	175.2	0.0339
26.9	175.05	0.03285
27	175.2	0.0342
27.09	175.05	0.03375
27.2	175.2	0.03375
27.3	175.05	0.03435
27.4	175.2	0.03375
27.5	175.05	0.03435
27.59	175.05	0.03375
27.7	175.05	0.03315
27.8	175.2	0.0336
27.9	175.2	0.03345
28	175.2	0.03435
28.09	175.05	0.0333
28.2	175.2	0.0336
28.3	175.05	0.03405
28.4	175.05	0.0336
28.5	175.05	0.0339
